File: pdfgetxn3-examples/Pt/Pt_bulk-00055.chi
Pt_bulk-00055.tif: 2-theta Scan
2-Theta Angle (Degrees)

       1465
 0.180035  0.0000000E+00
 0.380074  0.0000000E+00
 0.580113  0.0000000E+00
 0.780152  17430.7
 0.980191  90710.4
 1.18023  70626.5
 1.38027  60868.9
 1.58031  56836.1
 1.78035  56280.4
 1.98039  54159.8
 2.18042  54914.8
 2.38046  56315.3
 2.5805  58674.8
 2.78054  54176.1
 2.98058  49655.8
 3.18062  45879
 3.38066  45386.5
 3.5807  45583.2
 3.78074  44868.8
 3.98077  44375.9
 4.18081  45779.1
 4.38085  49486.7
 4.58089  57792.9
 4.78093  75527.7
 4.98097  125641
 5.18101  413274
 5.38105  3.69319e+06
 5.58109  482196
 5.78113  164234
 5.98116  254897
 6.1812  1.72457e+06
 6.38124  436273
 6.58128  87648.4
 6.78132  56321.5
 6.98136  46848.7
 7.1814  41974.1
 7.38144  40221.4
 7.58148  40117.1
 7.78151  41779.8
 7.98155  45817.4
 8.18159  54257.8
 8.38163  76322.6
 8.58167  184500
 8.78171  1.30696e+06
 8.98175  309989
 9.18179  88412
 9.38183  70227.1
 9.58186  71361.4
 9.7819  86978.5
 9.98194  138169
 10.182  537411
 10.382  1.36238e+06
 10.5821  251611
 10.7821  537336
 10.9821  133165
 11.1822  63587.4
 11.3822  52149.2
 11.5823  47625.2
 11.7823  45973.4
 11.9823  49197.4
 12.1824  62604.7
 12.3824  163967
 12.5824  133499
 12.7825  62668.8
 12.9825  62504.9
 13.1826  80466.1
 13.3826  163051
 13.5826  623452
 13.7827  335188
 13.9827  519291
 14.1828  133106
 14.3828  73943.5
 14.5828  64285.9
 14.7829  66422
 14.9829  87741.7
 15.183  246322
 15.383  264235
 15.583  88468.5
 15.7831  76483.9
 15.9831  117106
 16.1831  349950
 16.3832  161803
 16.5832  66389.9
 16.7833  51967.8
 16.9833  48930.7
 17.1833  50032.3
 17.3834  58738
 17.5834  108099
 17.7835  106733
 17.9835  74398.9
 18.1835  96995.4
 18.3836  243406
 18.5836  304253
 18.7837  244418
 18.9837  100236
 19.1837  68268.7
 19.3838  65014.9
 19.5838  85231.5
 19.7839  139428
 19.9839  80283.7
 20.1839  67243.1
 20.384  101392
 20.584  147811
 20.784  130222
 20.9841  68372.1
 21.1841  52169
 21.3842  50516.9
 21.5842  61431.4
 21.7842  65703.4
 21.9843  62239.8
 22.1843  92447.4
 22.3844  159447
 22.5844  126686
 22.7844  76723.4
 22.9845  62384.6
 23.1845  70372.6
 23.3846  119636
 23.5846  103760
 23.7846  79754.4
 23.9847  124034
 24.1847  119325
 24.3847  63454.2
 24.5848  49550.5
 24.7848  46009.3
 24.9849  47527.4
 25.1849  48680.5
 25.3849  50352.9
 25.585  67162.7
 25.785  91169.2
 25.9851  79610.2
 26.1851  54980.9
 26.3851  53303.2
 26.5852  67956.4
 26.7852  64180.9
 26.9853  61764.8
 27.1853  86599.2
 27.3853  78757.4
 27.5854  56866
 27.7854  49596.5
 27.9854  53272
 28.1855  58190.6
 28.3855  57972.1
 28.5856  79353.9
 28.7856  85062
 28.9856  61400.9
 29.1857  48057.7
 29.3857  47555
 29.5858  50153.1
 29.7858  46133.8
 29.9858  51797.3
 30.1859  46528.3
 30.3859  40103.9
 30.586  39538.5
 30.786  43797.3
 30.986  46088.1
 31.1861  50037.6
 31.3861  62278.6
 31.5861  54631.3
 31.7862  46548.7
 31.9862  48437.9
 32.1863  55958.3
 32.3863  50816.5
 32.5863  55172
 32.7864  53387.2
 32.9864  43309
 33.1865  38464.5
 33.3865  37315.6
 33.5865  38627.6
 33.7866  44490.5
 33.9866  50823.8
 34.1867  44482.2
 34.3867  39509.3
 34.5867  40518.3
 34.7868  38913.8
 34.9868  38582.2
 35.1868  37509
 35.3869  34521.8
 35.5869  34126.4
 35.787  35753.1
 35.987  38570.8
 36.187  45547.5
 36.3871  46183.7
 36.5871  39951.6
 36.7872  38139
 36.9872  39264.7
 37.1872  38795
 37.3873  41190.8
 37.5873  38994
 37.7874  35265.3
 37.9874  34531.7
 38.1874  34358
 38.3875  34835.2
 38.5875  34916.3
 38.7875  33169.6
 38.9876  33296.2
 39.1876  34766
 39.3877  34423.5
 39.5877  35093.7
 39.7877  32394.6
 39.9878  30835.9
 40.1878  30771.4
 40.3879  31071.8
 40.5879  32627.6
 40.7879  33786
 40.988  32191.5
 41.188  32131.3
 41.3881  32675
 41.5881  33829.5
 41.7881  33411.9
 41.9882  31355.4
 42.1882  30709.3
 42.3882  31091.6
 42.5883  32506
 42.7883  32908.8
 42.9884  30667.4
 43.1884  29454.2
 43.3884  28810.2
 43.5885  28292.7
 43.7885  27628.5
 43.9886  27015.3
 44.1886  26934
 44.3886  27494.6
 44.5887  28609.5
 44.7887  28849.3
 44.9888  28206.6
 45.1888  28434.9
 45.3888  28498.3
 45.5889  28683.6
 45.7889  28074.1
 45.9889  27222.3
 46.189  27002.3
 46.389  27171.2
 46.5891  27762
 46.7891  27344.5
 46.9891  26986
 47.1892  26935.2
 47.3892  26641.8
 47.5893  26177.4
 47.7893  25428.2
 47.9893  25056.6
 48.1894  25027.2
 48.3894  25427.8
 48.5895  24769.5
 48.7895  23707.7
 48.9895  23497.7
 49.1896  23332.5
 49.3896  23176.2
 49.5896  22452.7
 49.7897  22606.9
 49.9897  23069.4
 50.1898  23336.7
 50.3898  23426.3
 50.5898  23323.9
 50.7899  23328.1
 50.9899  23323.9
 51.19  23088
 51.39  22511.7
 51.59  22210.9
 51.7901  22175.7
 51.9901  22346.2
 52.1902  22091.4
 52.3902  21816
 52.5902  21507.4
 52.7903  21312.3
 52.9903  20909
 53.1904  20770.4
 53.3904  20754.4
 53.5904  20749.9
 53.7905  20557.9
 53.9905  20221.4
 54.1905  19935.6
 54.3906  19667.1
 54.5906  19470.9
 54.7907  19273.9
 54.9907  19123.4
 55.1907  19071.8
 55.3908  19024.4
 55.5908  18948.5
 55.7909  18886.3
 55.9909  18802.1
 56.1909  18507.1
 56.391  18049.6
 56.591  17670.8
 56.791  17272.9
 56.9911  16701.7
 57.1911  16325.5
 57.3912  15360.9
 57.5912  14237.3
 57.7912  12898.2
 57.9913  13238.7
 58.1913  11566.3
 58.3914  5858.44
 58.5914 -1001.85