File: pdfgetxn3-examples/Multiple_Background_Subtraction/TEST_blank-00000.chi
TEST_blank-00000.tif: 2-theta Scan
2-Theta Angle (Degrees)

       1465
 0.0000000E+00  0.0000000E+00
 0.0000000E+00  0.0000000E+00
 0.0000000E+00  0.0000000E+00
 0.0000000E+00  0.0000000E+00
 0.0000000E+00  0.0000000E+00
 0.0000000E+00  0.0000000E+00
 0.0000000E+00  0.0000000E+00
 0.0000000E+00  0.0000000E+00
 0.0000000E+00  0.0000000E+00
 0.0000000E+00  0.0000000E+00
 0.0000000E+00  0.0000000E+00
 0.0000000E+00  0.0000000E+00
 0.0000000E+00  0.0000000E+00
 0.0000000E+00  0.0000000E+00
 0.0000000E+00  0.0000000E+00
 0.0000000E+00  0.0000000E+00
 0.0000000E+00  0.0000000E+00
 0.0000000E+00  0.0000000E+00
 0.0000000E+00  0.0000000E+00
 0.0000000E+00  0.0000000E+00
 0.0000000E+00  0.0000000E+00
 0.0000000E+00  0.0000000E+00
 0.0000000E+00  0.0000000E+00
 0.0000000E+00  0.0000000E+00
 0.0000000E+00  0.0000000E+00
 0.0000000E+00  0.0000000E+00
 0.0000000E+00  0.0000000E+00
 0.0000000E+00  0.0000000E+00
 0.0000000E+00  0.0000000E+00
 0.0000000E+00  0.0000000E+00
 0.0000000E+00  0.0000000E+00
 0.0000000E+00  0.0000000E+00
 0.0000000E+00  0.0000000E+00
 0.0000000E+00  0.0000000E+00
 0.0000000E+00  0.0000000E+00
 0.0000000E+00  0.0000000E+00
 0.0000000E+00  0.0000000E+00
 0.0000000E+00  0.0000000E+00
 0.0000000E+00  0.0000000E+00
 0.0000000E+00  0.0000000E+00
 0.0000000E+00  0.0000000E+00
 0.0000000E+00  0.0000000E+00
 0.0000000E+00  0.0000000E+00
 0.0000000E+00  0.0000000E+00
 0.0000000E+00  0.0000000E+00
 0.0000000E+00  0.0000000E+00
 0.0000000E+00  0.0000000E+00
 0.0000000E+00  0.0000000E+00
 0.0000000E+00  0.0000000E+00
 0.0000000E+00  0.0000000E+00
 0.0000000E+00  0.0000000E+00
 0.0000000E+00  0.0000000E+00
 0.0000000E+00  0.0000000E+00
 0.0000000E+00  0.0000000E+00
 0.0000000E+00  0.0000000E+00
 0.0000000E+00  0.0000000E+00
 0.0000000E+00  0.0000000E+00
 0.0000000E+00  0.0000000E+00
 0.0000000E+00  0.0000000E+00
 0.0000000E+00  0.0000000E+00
 0.0000000E+00  0.0000000E+00
 0.0000000E+00  0.0000000E+00
 0.0000000E+00  0.0000000E+00
 0.0000000E+00  0.0000000E+00
 0.0000000E+00  0.0000000E+00
 0.0000000E+00  0.0000000E+00
 0.0000000E+00  0.0000000E+00
 0.0000000E+00  0.0000000E+00
 0.0000000E+00  0.0000000E+00
 0.0000000E+00  0.0000000E+00
 0.0000000E+00  0.0000000E+00
 0.0000000E+00  0.0000000E+00
 0.0000000E+00  0.0000000E+00
 0.0000000E+00  0.0000000E+00
 0.0000000E+00  0.0000000E+00
 0.0000000E+00  0.0000000E+00
 0.0000000E+00  0.0000000E+00
 0.0000000E+00  0.0000000E+00
 0.0000000E+00  0.0000000E+00
 0.0000000E+00  0.0000000E+00
 0.0000000E+00  0.0000000E+00
 0.0000000E+00  0.0000000E+00
 0.0000000E+00  0.0000000E+00
 0.0000000E+00  0.0000000E+00
 0.0000000E+00  0.0000000E+00
 0.0000000E+00  0.0000000E+00
 0.0000000E+00  0.0000000E+00
 0.0000000E+00  0.0000000E+00
 0.0000000E+00  0.0000000E+00
 0.0000000E+00  0.0000000E+00
 0.0000000E+00  0.0000000E+00
 0.0000000E+00  0.0000000E+00
 0.0000000E+00  0.0000000E+00
 0.0000000E+00  0.0000000E+00
 0.0000000E+00  0.0000000E+00
 0.0000000E+00  0.0000000E+00
 0.0000000E+00  0.0000000E+00
 0.0000000E+00  0.0000000E+00
 0.0000000E+00  0.0000000E+00
 0.0000000E+00  0.0000000E+00
 0.0000000E+00  0.0000000E+00
 0.0000000E+00  0.0000000E+00
 0.0000000E+00  0.0000000E+00
 0.0000000E+00  0.0000000E+00
 0.0000000E+00  0.0000000E+00
 0.0000000E+00  0.0000000E+00
 0.0000000E+00  0.0000000E+00
 0.0000000E+00  0.0000000E+00
 0.0000000E+00  0.0000000E+00
 0.0000000E+00  0.0000000E+00
 0.0000000E+00  0.0000000E+00
 0.0000000E+00  0.0000000E+00
 0.0000000E+00  0.0000000E+00
 0.0000000E+00  0.0000000E+00
 0.0000000E+00  0.0000000E+00
 0.0000000E+00  0.0000000E+00
 0.0000000E+00  0.0000000E+00
 0.0000000E+00  0.0000000E+00
 0.0000000E+00  0.0000000E+00
 0.0000000E+00  0.0000000E+00
 0.0000000E+00  0.0000000E+00
 0.0000000E+00  0.0000000E+00
 0.0000000E+00  0.0000000E+00
 0.0000000E+00  0.0000000E+00
 0.0000000E+00  0.0000000E+00
 0.0000000E+00  0.0000000E+00
 0.0000000E+00  0.0000000E+00
 0.0000000E+00  0.0000000E+00
 0.0000000E+00  0.0000000E+00
 0.0000000E+00  0.0000000E+00
 0.0000000E+00  0.0000000E+00
 0.0000000E+00  0.0000000E+00
 0.0000000E+00  0.0000000E+00
 0.0000000E+00  0.0000000E+00
 0.0000000E+00  0.0000000E+00
 0.0000000E+00  0.0000000E+00
 0.0000000E+00  0.0000000E+00
 0.0000000E+00  0.0000000E+00
 0.0000000E+00  0.0000000E+00
 0.0000000E+00  0.0000000E+00
 0.0000000E+00  0.0000000E+00
 0.0000000E+00  0.0000000E+00
 0.0000000E+00  0.0000000E+00
 0.0000000E+00  0.0000000E+00
 0.0000000E+00  0.0000000E+00
 0.0000000E+00  0.0000000E+00
 0.0000000E+00  0.0000000E+00
 0.0000000E+00  0.0000000E+00
 0.0000000E+00  0.0000000E+00
 0.0000000E+00  0.0000000E+00
 0.0000000E+00  0.0000000E+00
 0.0000000E+00  0.0000000E+00
 0.0000000E+00  0.0000000E+00
 0.0000000E+00  0.0000000E+00
 0.0000000E+00  0.0000000E+00
 0.0000000E+00  0.0000000E+00
 0.0000000E+00  0.0000000E+00
 0.0000000E+00  0.0000000E+00
 0.0000000E+00  0.0000000E+00
 0.0000000E+00  0.0000000E+00
 0.0000000E+00  0.0000000E+00
 0.0000000E+00  0.0000000E+00
 0.0000000E+00  0.0000000E+00
 0.0000000E+00  0.0000000E+00
 0.0000000E+00  0.0000000E+00
 0.0000000E+00  0.0000000E+00
 0.0000000E+00  0.0000000E+00
 0.0000000E+00  0.0000000E+00
 0.0000000E+00  0.0000000E+00
 0.0000000E+00  0.0000000E+00
 0.0000000E+00  0.0000000E+00
 0.0000000E+00  0.0000000E+00
 0.0000000E+00  0.0000000E+00
 0.0000000E+00  0.0000000E+00
 0.0000000E+00  0.0000000E+00
 0.0000000E+00  0.0000000E+00
 0.0000000E+00  0.0000000E+00
 0.0000000E+00  0.0000000E+00
 0.0000000E+00  0.0000000E+00
 0.0000000E+00  0.0000000E+00
 0.0000000E+00  0.0000000E+00
 0.0000000E+00  0.0000000E+00
 0.0000000E+00  0.0000000E+00
 0.0000000E+00  0.0000000E+00
 0.0000000E+00  0.0000000E+00
 0.0000000E+00  0.0000000E+00
 0.0000000E+00  0.0000000E+00
 0.0000000E+00  0.0000000E+00
 0.0000000E+00  0.0000000E+00
 0.0000000E+00  0.0000000E+00
 0.0000000E+00  0.0000000E+00
 0.0000000E+00  0.0000000E+00
 0.0000000E+00  0.0000000E+00
 0.0000000E+00  0.0000000E+00
 0.0000000E+00  0.0000000E+00
 0.0000000E+00  0.0000000E+00
 0.0000000E+00  0.0000000E+00
 0.0000000E+00  0.0000000E+00
 0.0000000E+00  0.0000000E+00
 0.0000000E+00  0.0000000E+00
 0.0000000E+00  0.0000000E+00
 0.0000000E+00  0.0000000E+00
 0.0000000E+00  0.0000000E+00
 0.0000000E+00  0.0000000E+00
 0.0000000E+00  0.0000000E+00
 0.0000000E+00  0.0000000E+00
 0.0000000E+00  0.0000000E+00
 0.0000000E+00  0.0000000E+00
 0.0000000E+00  0.0000000E+00
 0.0000000E+00  0.0000000E+00
 0.0000000E+00  0.0000000E+00
 0.0000000E+00  0.0000000E+00
 0.0000000E+00  0.0000000E+00
 0.0000000E+00  0.0000000E+00
 0.0000000E+00  0.0000000E+00
 0.0000000E+00  0.0000000E+00
 0.0000000E+00  0.0000000E+00
 0.0000000E+00  0.0000000E+00
 0.0000000E+00  0.0000000E+00
 0.0000000E+00  0.0000000E+00
 0.0000000E+00  0.0000000E+00
 0.0000000E+00  0.0000000E+00
 0.0000000E+00  0.0000000E+00
 0.0000000E+00  0.0000000E+00
 0.0000000E+00  0.0000000E+00
 0.0000000E+00  0.0000000E+00
 0.0000000E+00  0.0000000E+00
 0.0000000E+00  0.0000000E+00
 0.0000000E+00  0.0000000E+00
 0.0000000E+00  0.0000000E+00
 0.0000000E+00  0.0000000E+00
 0.0000000E+00  0.0000000E+00
 0.0000000E+00  0.0000000E+00
 0.0000000E+00  0.0000000E+00
 0.0000000E+00  0.0000000E+00
 0.0000000E+00  0.0000000E+00
 0.0000000E+00  0.0000000E+00
 0.0000000E+00  0.0000000E+00
 0.0000000E+00  0.0000000E+00
 0.0000000E+00  0.0000000E+00
 0.0000000E+00  0.0000000E+00
 0.0000000E+00  0.0000000E+00
 0.0000000E+00  0.0000000E+00
 0.0000000E+00  0.0000000E+00
 0.0000000E+00  0.0000000E+00
 0.0000000E+00  0.0000000E+00
 0.0000000E+00  0.0000000E+00
 0.0000000E+00  0.0000000E+00
 0.0000000E+00  0.0000000E+00
 0.0000000E+00  0.0000000E+00
 0.0000000E+00  0.0000000E+00
 0.0000000E+00  0.0000000E+00
 0.0000000E+00  0.0000000E+00
 0.0000000E+00  0.0000000E+00
 0.0000000E+00  0.0000000E+00
 0.0000000E+00  0.0000000E+00
 0.0000000E+00  0.0000000E+00
 0.0000000E+00  0.0000000E+00
 0.0000000E+00  0.0000000E+00
 0.0000000E+00  0.0000000E+00
 0.0000000E+00  0.0000000E+00
 0.0000000E+00  0.0000000E+00
 0.0000000E+00  0.0000000E+00
 0.0000000E+00  0.0000000E+00
 0.0000000E+00  0.0000000E+00
 0.0000000E+00  0.0000000E+00
 0.0000000E+00  0.0000000E+00
 0.0000000E+00  0.0000000E+00
 0.0000000E+00  0.0000000E+00
 0.0000000E+00  0.0000000E+00
 0.0000000E+00  0.0000000E+00
 0.0000000E+00  0.0000000E+00
 0.0000000E+00  0.0000000E+00
 0.0000000E+00  0.0000000E+00
 0.0000000E+00  0.0000000E+00
 0.0000000E+00  0.0000000E+00
 0.0000000E+00  0.0000000E+00
 0.0000000E+00  0.0000000E+00
 0.0000000E+00  0.0000000E+00
 0.0000000E+00  0.0000000E+00
 0.0000000E+00  0.0000000E+00
 0.0000000E+00  0.0000000E+00
 0.0000000E+00  0.0000000E+00
 0.0000000E+00  0.0000000E+00
 0.0000000E+00  0.0000000E+00
 0.0000000E+00  0.0000000E+00
 0.0000000E+00  0.0000000E+00
 0.0000000E+00  0.0000000E+00
 0.0000000E+00  0.0000000E+00
 0.0000000E+00  0.0000000E+00
 0.0000000E+00  0.0000000E+00
 0.0000000E+00  0.0000000E+00
 0.0000000E+00  0.0000000E+00