File: pdfgetxn3-examples/Pt/series/Pt_bulk_ramp03-00904.chi
Pt_bulk_ramp03-00904.tif: 2-theta Scan
2-Theta Angle (Degrees)

       1465
 0.180035  0.0000000E+00
 0.380074  0.0000000E+00
 0.580113  0.0000000E+00
 0.780152  18982.2
 0.980191  89579.2
 1.18023  65747
 1.38027  55018.2
 1.58031  50569.9
 1.78035  50104.6
 1.98039  47280.2
 2.18042  47336.2
 2.38046  47996.5
 2.5805  49703.8
 2.78054  47184.4
 2.98058  43844.5
 3.18062  40286.4
 3.38066  40041.6
 3.5807  40294.1
 3.78074  39871.6
 3.98077  39249
 4.18081  40482.6
 4.38085  43456.8
 4.58089  51002.2
 4.78093  67217.6
 4.98097  114892
 5.18101  380802
 5.38105  3.67474e+06
 5.58109  562084
 5.78113  156217
 5.98116  230745
 6.1812  1.70409e+06
 6.38124  526786
 6.58128  84788.5
 6.78132  49915.3
 6.98136  39905.4
 7.1814  35566.2
 7.38144  33818.5
 7.58148  33481.8
 7.78151  34588.9
 7.98155  37819.3
 8.18159  45043.8
 8.38163  65066.3
 8.58167  161569
 8.78171  1.31033e+06
 8.98175  391001
 9.18179  80349.9
 9.38183  57408.8
 9.58186  57046.3
 9.7819  69733.7
 9.98194  117920
 10.182  465780
 10.382  1.66637e+06
 10.5821  273050
 10.7821  552376
 10.9821  150979
 11.1822  52558.2
 11.3822  40187.3
 11.5823  36063.2
 11.7823  34829.4
 11.9823  37765.4
 12.1824  50184.3
 12.3824  146123
 12.5824  157837
 12.7825  53349.8
 12.9825  48487.1
 13.1826  63755.9
 13.3826  136422
 13.5826  654092
 13.7827  367876
 13.9827  624201
 14.1828  150297
 14.3828  60686.6
 14.5828  48459.6
 14.7829  49918.8
 14.9829  69679.2
 15.183  214039
 15.383  349535
 15.583  85229.8
 15.7831  62063.6
 15.9831  98800.7
 16.1831  359985
 16.3832  218697
 16.5832  60782.6
 16.7833  39891
 16.9833  35621.2
 17.1833  36317.1
 17.3834  44073.7
 17.5834  91188.6
 17.7835  120849
 17.9835  61671.1
 18.1835  78971.3
 18.3836  221037
 18.5836  394472
 18.7837  301214
 18.9837  109970
 19.1837  55250
 19.3838  49737.2
 19.5838  69500
 19.7839  151834
 19.9839  85747.3
 20.1839  55615.4
 20.384  86357.3
 20.584  171292
 20.784  155864
 20.9841  70663.1
 21.1841  41112.5
 21.3842  37608.2
 21.5842  47802.6
 21.7842  62648.3
 21.9843  50605.9
 22.1843  79844.7
 22.3844  186151
 22.5844  154535
 22.7844  82236
 22.9845  51147.4
 23.1845  56603.5
 23.3846  114186
 23.5846  130891
 23.7846  75001.1
 23.9847  120513
 24.1847  165878
 24.3847  66018.5
 24.5848  39696.4
 24.7848  34255.6
 24.9849  36188.8
 25.1849  40340.4
 25.3849  40117.2
 25.585  58895.3
 25.785  100490
 25.9851  102032
 26.1851  53068.4
 26.3851  44417.8
 26.5852  63379.5
 26.7852  70371.5
 26.9853  56198.2
 27.1853  90883.6
 27.3853  96689.8
 27.5854  58965.3
 27.7854  41062.8
 27.9854  43910
 28.1855  56930.2
 28.3855  53164.3
 28.5856  80490.8
 28.7856  110382
 28.9856  75115.4
 29.1857  44073.6
 29.3857  39862.8
 29.5858  49064.7
 29.7858  41895.2
 29.9858  50256.2
 30.1859  50226.6
 30.3859  34700.8
 30.586  31420.5
 30.786  36716.7
 30.986  44287.5
 31.1861  45940.8
 31.3861  70551
 31.5861  65742
 31.7862  45438.4
 31.9862  43827.9
 32.1863  60984.1
 32.3863  55321.9
 32.5863  57540.2
 32.7864  65189.9
 32.9864  45272.6
 33.1865  32758.9
 33.3865  29682.3
 33.5865  31371.5
 33.7866  40585.6
 33.9866  58447.1
 34.1867  53079.9
 34.3867  37954.6
 34.5867  38637.9
 34.7868  39502.2
 34.9868  36484.1
 35.1868  38084.7
 35.3869  30512.2
 35.5869  27981.7
 35.787  30316.1
 35.987  35221.6
 36.187  48167.3
 36.3871  59432.8
 36.5871  44768.4
 36.7872  36102.6
 36.9872  39044.3
 37.1872  38614.2
 37.3873  43905.4
 37.5873  44701.6
 37.7874  34589
 37.9874  31126.5
 38.1874  32342.7
 38.3875  32800.3
 38.5875  36174.5
 38.7875  32301.2
 38.9876  30719
 39.1876  35489.2
 39.3877  35631.2
 39.5877  38245.6
 39.7877  33821.9
 39.9878  27859.6
 40.1878  27181.5
 40.3879  28164.1
 40.5879  30946.1
 40.7879  36907.6
 40.988  33482.6
 41.188  30943.2
 41.3881  33054.5
 41.5881  35341.9
 41.7881  38342.1
 41.9882  32127
 42.1882  28758.6
 42.3882  29623.5
 42.5883  33316.4
 42.7883  38977.7
 42.9884  34084.3
 43.1884  28897.3
 43.3884  28005.7
 43.5885  26644.7
 43.7885  26040.2
 43.9886  23907.9
 44.1886  23317.6
 44.3886  24666.1
 44.5887  28029.9
 44.7887  31596.8
 44.9888  29208.5
 45.1888  28706.5
 45.3888  30217.8
 45.5889  30660.7
 45.7889  30690.2
 45.9889  27116.3
 46.189  25584.6
 46.389  26167.2
 46.5891  28757.3
 46.7891  29449.2
 46.9891  27485.1
 47.1892  28136
 47.3892  27716.8
 47.5893  27364.5
 47.7893  24968.1
 47.9893  23989.5
 48.1894  24922.2
 48.3894  26651.7
 48.5895  26936.2
 48.7895  23715.1
 48.9895  22408.9
 49.1896  22286.8
 49.3896  22981.3
 49.5896  22436.3
 49.7897  21449.9
 49.9897  21749.4
 50.1898  23750.7
 50.3898  25642.1
 50.5898  24549.3
 50.7899  24831.6
 50.9899  25372.5
 51.19  25750.1
 51.39  23431.4
 51.59  21751.9
 51.7901  21824.8
 51.9901  23455.2
 52.1902  24010.9
 52.3902  22856.4
 52.5902  22719.3
 52.7903  21866.6
 52.9903  21339.8
 53.1904  20620.4
 53.3904  20838
 53.5904  21715.9
 53.7905  22710.3
 53.9905  21641.9
 54.1905  20437.4
 54.3906  20123.7
 54.5906  19716.5
 54.7907  19084.8
 54.9907  18907.2
 55.1907  19370.4
 55.3908  20177.4
 55.5908  20418.7
 55.7909  20460.3
 55.9909  21095.8
 56.1909  21596.8
 56.391  21068.5
 56.591  19325.5
 56.791  18499.1
 56.9911  18328
 57.1911  18025
 57.3912  16744.5
 57.5912  15460.8
 57.7912  14670.4
 57.9913  14978.9
 58.1913  13190.6
 58.3914  7475.66
 58.5914  2364.48