File: pdfgetxn3-examples/Pt/series/Pt_bulk_ramp03-00906.chi
Pt_bulk_ramp03-00906.tif: 2-theta Scan
2-Theta Angle (Degrees)

       1465
 0.180035  0.0000000E+00
 0.380074  0.0000000E+00
 0.580113  0.0000000E+00
 0.780152  19182.9
 0.980191  89948.3
 1.18023  65930.5
 1.38027  55408.4
 1.58031  50744.9
 1.78035  50177.4
 1.98039  47481.7
 2.18042  47521.1
 2.38046  48076.3
 2.5805  50006.2
 2.78054  47384.7
 2.98058  44085.1
 3.18062  40408.4
 3.38066  40236.7
 3.5807  40506.2
 3.78074  40133.2
 3.98077  39436.1
 4.18081  40702
 4.38085  43686.8
 4.58089  51329.4
 4.78093  67661.8
 4.98097  115736
 5.18101  383437
 5.38105  3.67725e+06
 5.58109  564353
 5.78113  157319
 5.98116  232224
 6.1812  1.7134e+06
 6.38124  528807
 6.58128  85256.6
 6.78132  50230.6
 6.98136  40182.6
 7.1814  35794.3
 7.38144  34066.6
 7.58148  33667.5
 7.78151  34831.8
 7.98155  38100.8
 8.18159  45328.5
 8.38163  65526
 8.58167  162808
 8.78171  1.31821e+06
 8.98175  392471
 9.18179  80907.2
 9.38183  57878.8
 9.58186  57516.6
 9.7819  70317
 9.98194  118883
 10.182  469522
 10.382  1.67253e+06
 10.5821  274407
 10.7821  555695
 10.9821  151604
 11.1822  52930.2
 11.3822  40526.4
 11.5823  36361.1
 11.7823  35141.7
 11.9823  38066.8
 12.1824  50632.8
 12.3824  147139
 12.5824  158439
 12.7825  53736.3
 12.9825  48855.8
 13.1826  64273.2
 13.3826  137521
 13.5826  657975
 13.7827  369541
 13.9827  626872
 14.1828  150884
 14.3828  61180
 14.5828  48904.4
 14.7829  50381.3
 14.9829  70266.1
 15.183  215703
 15.383  350720
 15.583  85728
 15.7831  62546.9
 15.9831  99606.9
 16.1831  362146
 16.3832  219236
 16.5832  61184.4
 16.7833  40224.5
 16.9833  35957
 17.1833  36623.8
 17.3834  44469.8
 17.5834  91879.8
 17.7835  121308
 17.9835  62104.6
 18.1835  79640.5
 18.3836  222795
 18.5836  395805
 18.7837  302431
 18.9837  110432
 19.1837  55704.6
 19.3838  50169.8
 19.5838  70063.1
 19.7839  152553
 19.9839  86113.8
 20.1839  56039.3
 20.384  87012.6
 20.584  172062
 20.784  156470
 20.9841  71022.2
 21.1841  41454
 21.3842  37944.3
 21.5842  48226.9
 21.7842  63010.1
 21.9843  51023.1
 22.1843  80482
 22.3844  187010
 22.5844  155043
 22.7844  82539.2
 22.9845  51579.3
 23.1845  57050.8
 23.3846  114960
 23.5846  131286
 23.7846  75453.7
 23.9847  121282
 24.1847  166167
 24.3847  66310.8
 24.5848  40009.5
 24.7848  34533.9
 24.9849  36488.9
 25.1849  40601.1
 25.3849  40428.2
 25.585  59308.9
 25.785  100892
 25.9851  102300
 26.1851  53355.5
 26.3851  44779.8
 26.5852  63830.9
 26.7852  70627.3
 26.9853  56543.5
 27.1853  91358.1
 27.3853  96938.2
 27.5854  59202.6
 27.7854  41387.4
 27.9854  44245.5
 28.1855  57256.2
 28.3855  53489.4
 28.5856  80960.6
 28.7856  110664
 28.9856  75278
 29.1857  44367.2
 29.3857  40185.9
 29.5858  49306.9
 29.7858  42147.1
 29.9858  50549.1
 30.1859  50356.3
 30.3859  34905.8
 30.586  31673.5
 30.786  36989.5
 30.986  44506.5
 31.1861  46217.8
 31.3861  70823.4
 31.5861  65876.5
 31.7862  45676.2
 31.9862  44094.3
 32.1863  61254.1
 32.3863  55511.3
 32.5863  57815.4
 32.7864  65355.3
 32.9864  45408
 33.1865  32985.2
 33.3865  29912.5
 33.5865  31588.1
 33.7866  40851
 33.9866  58608.4
 34.1867  53168.9
 34.3867  38118
 34.5867  38858.6
 34.7868  39669.5
 34.9868  36669.5
 35.1868  38238.1
 35.3869  30655
 35.5869  28150.5
 35.787  30497.1
 35.987  35452.4
 36.187  48367
 36.3871  59507.6
 36.5871  44866.2
 36.7872  36311.8
 36.9872  39270.7
 37.1872  38782.1
 37.3873  44089.3
 37.5873  44833
 37.7874  34731.6
 37.9874  31313.5
 38.1874  32490.9
 38.3875  32951.2
 38.5875  36283.3
 38.7875  32441
 38.9876  30880
 39.1876  35604.4
 39.3877  35728.6
 39.5877  38343.5
 39.7877  33902.7
 39.9878  27993.8
 40.1878  27328.4
 40.3879  28296.3
 40.5879  31087
 40.7879  37000.8
 40.988  33573
 41.188  31098.3
 41.3881  33146.8
 41.5881  35458.9
 41.7881  38396.4
 41.9882  32226.6
 42.1882  28899
 42.3882  29760.3
 42.5883  33429.6
 42.7883  39028.4
 42.9884  34133
 43.1884  29017.7
 43.3884  28083.4
 43.5885  26776.8
 43.7885  26169.3
 43.9886  23954.3
 44.1886  23430.7
 44.3886  24775.8
 44.5887  28166
 44.7887  31632.6
 44.9888  29304.5
 45.1888  28816.3
 45.3888  30302.9
 45.5889  30724.6
 45.7889  30761.9
 45.9889  27154.1
 46.189  25709.2
 46.389  26282.3
 46.5891  28838
 46.7891  29499.9
 46.9891  27543.1
 47.1892  28162.9
 47.3892  27809.6
 47.5893  27382.2
 47.7893  25018.1
 47.9893  24077.3
 48.1894  24963.8
 48.3894  26676.9
 48.5895  26951.7
 48.7895  23729.6
 48.9895  22456
 49.1896  22326.3
 49.3896  23019.6
 49.5896  22452.7
 49.7897  21487.7
 49.9897  21752
 50.1898  23828.2
 50.3898  25615.5
 50.5898  24601.1
 50.7899  24871.1
 50.9899  25468.3
 51.19  25756
 51.39  23432.1
 51.59  21822
 51.7901  21894
 51.9901  23443.8
 52.1902  24058.3
 52.3902  22872.7
 52.5902  22609
 52.7903  21863.4
 52.9903  21400.1
 53.1904  20645
 53.3904  20878.5
 53.5904  21726.1
 53.7905  22691.8
 53.9905  21690.6
 54.1905  20537.3
 54.3906  20078.4
 54.5906  19754.1
 54.7907  19151.8
 54.9907  18928.1
 55.1907  19426.7
 55.3908  20189.8
 55.5908  20512.5
 55.7909  20478.5
 55.9909  21123.4
 56.1909  21501.4
 56.391  21072.2
 56.591  19331.4
 56.791  18540.3
 56.9911  18297.3
 57.1911  17922.3
 57.3912  16768.7
 57.5912  15450.3
 57.7912  14553.9
 57.9913  15037.9
 58.1913  13145.9
 58.3914  7192.11
 58.5914  1659.44