File: pdfgetxn3-examples/Pt/series/Pt_bulk_ramp03-00903.chi
Pt_bulk_ramp03-00903.tif: 2-theta Scan
2-Theta Angle (Degrees)

       1465
 0.180035  0.0000000E+00
 0.380074  0.0000000E+00
 0.580113  0.0000000E+00
 0.780152  18917.4
 0.980191  89127
 1.18023  65199.4
 1.38027  54811.3
 1.58031  50312.8
 1.78035  49738.5
 1.98039  46947.8
 2.18042  46960.8
 2.38046  47649.8
 2.5805  49358.8
 2.78054  46848.2
 2.98058  43585.3
 3.18062  40054.9
 3.38066  39805.4
 3.5807  39998.5
 3.78074  39612.3
 3.98077  38956
 4.18081  40158.9
 4.38085  43150.2
 4.58089  50659.8
 4.78093  66734.9
 4.98097  114053
 5.18101  377640
 5.38105  3.67154e+06
 5.58109  558238
 5.78113  154986
 5.98116  228695
 6.1812  1.69156e+06
 6.38124  523172
 6.58128  84158.5
 6.78132  49549.7
 6.98136  39644.3
 7.1814  35310.7
 7.38144  33570.6
 7.58148  33212.8
 7.78151  34347.1
 7.98155  37535.8
 8.18159  44654
 8.38163  64542.6
 8.58167  160372
 8.78171  1.30049e+06
 8.98175  388544
 9.18179  79732.7
 9.38183  56936.8
 9.58186  56580
 9.7819  69144.2
 9.98194  116999
 10.182  461965
 10.382  1.65564e+06
 10.5821  271126
 10.7821  548119
 10.9821  150016
 11.1822  52097
 11.3822  39845.2
 11.5823  35770.4
 11.7823  34571.1
 11.9823  37455.6
 12.1824  49821.5
 12.3824  144909
 12.5824  156853
 12.7825  52953.4
 12.9825  48037
 13.1826  63238.4
 13.3826  135322
 13.5826  649091
 13.7827  365161
 13.9827  619918
 14.1828  149313
 14.3828  60195.1
 14.5828  48030.4
 14.7829  49503.9
 14.9829  69104
 15.183  212247
 15.383  347474
 15.583  84608.6
 15.7831  61557.3
 15.9831  98017.1
 16.1831  357102
 16.3832  217546
 16.5832  60342
 16.7833  39561.8
 16.9833  35316.2
 17.1833  36026.9
 17.3834  43687.9
 17.5834  90434.6
 17.7835  120054
 17.9835  61181.9
 18.1835  78336
 18.3836  219354
 18.5836  392026
 18.7837  299285
 18.9837  109277
 19.1837  54797.2
 19.3838  49315.4
 19.5838  68910.2
 19.7839  150770
 19.9839  85218.4
 20.1839  55171.1
 20.384  85666.9
 20.584  170250
 20.784  154916
 20.9841  70275.6
 21.1841  40812.8
 21.3842  37293.4
 21.5842  47428.7
 21.7842  62190.6
 21.9843  50221
 22.1843  79229.1
 22.3844  184903
 22.5844  153605
 22.7844  81716.1
 22.9845  50746.6
 23.1845  56145.2
 23.3846  113342
 23.5846  130180
 23.7846  74441.9
 23.9847  119623
 24.1847  164956
 24.3847  65640.7
 24.5848  39395.3
 24.7848  33965.8
 24.9849  35891.7
 25.1849  40040.4
 25.3849  39806.3
 25.585  58449.4
 25.785  99827.9
 25.9851  101508
 26.1851  52737.2
 26.3851  44091.9
 26.5852  62935.5
 26.7852  69919.8
 26.9853  55796.6
 27.1853  90241.4
 27.3853  96166.8
 27.5854  58585.4
 27.7854  40769.4
 27.9854  43537.1
 28.1855  56585.9
 28.3855  52785
 28.5856  79924.9
 28.7856  109799
 28.9856  74708.4
 29.1857  43807
 29.3857  39572.6
 29.5858  48752.7
 29.7858  41612.8
 29.9858  49923.9
 30.1859  49944.5
 30.3859  34462.8
 30.586  31174.5
 30.786  36459.7
 30.986  43997.4
 31.1861  45670.4
 31.3861  70105.7
 31.5861  65379.6
 31.7862  45145.9
 31.9862  43496.2
 32.1863  60589.4
 32.3863  55015
 32.5863  57208.4
 32.7864  64858.6
 32.9864  45020.8
 33.1865  32539.3
 33.3865  29463.2
 33.5865  31130.8
 33.7866  40321.6
 33.9866  58097.8
 34.1867  52833.2
 34.3867  37721.9
 34.5867  38408.8
 34.7868  39282.8
 34.9868  36236.7
 35.1868  37884.3
 35.3869  30302.1
 35.5869  27762.5
 35.787  30081
 35.987  35028.6
 36.187  47864.3
 36.3871  59164.1
 36.5871  44522.9
 36.7872  35909.8
 36.9872  38812
 37.1872  38430.5
 37.3873  43655.1
 37.5873  44495.9
 37.7874  34384.4
 37.9874  30912.5
 38.1874  32160.8
 38.3875  32618
 38.5875  35977
 38.7875  32133
 38.9876  30543.9
 39.1876  35282.8
 39.3877  35432.5
 39.5877  38027.3
 39.7877  33642.8
 39.9878  27687.9
 40.1878  27012
 40.3879  27974.8
 40.5879  30746.7
 40.7879  36703
 40.988  33331.4
 41.188  30788.9
 41.3881  32859.8
 41.5881  35147.9
 41.7881  38170.3
 41.9882  31962
 42.1882  28588.5
 42.3882  29490.8
 42.5883  33144.1
 42.7883  38825.5
 42.9884  33948
 43.1884  28753.4
 43.3884  27860
 43.5885  26495.3
 43.7885  25908.8
 43.9886  23734
 44.1886  23136.7
 44.3886  24501.3
 44.5887  27898.5
 44.7887  31436
 44.9888  29081.8
 45.1888  28563.7
 45.3888  30117.8
 45.5889  30513.5
 45.7889  30571.2
 45.9889  26978.3
 46.189  25435.2
 46.389  26023.8
 46.5891  28632.5
 46.7891  29350.4
 46.9891  27363
 47.1892  27968.4
 47.3892  27590.9
 47.5893  27242.8
 47.7893  24816.6
 47.9893  23863.6
 48.1894  24785.5
 48.3894  26545.7
 48.5895  26819.3
 48.7895  23596.6
 48.9895  22317.7
 49.1896  22155.7
 49.3896  22904
 49.5896  22319.5
 49.7897  21358.1
 49.9897  21578.4
 50.1898  23653.8
 50.3898  25565.4
 50.5898  24451.2
 50.7899  24752.1
 50.9899  25272.4
 51.19  25675.2
 51.39  23316.6
 51.59  21660.2
 51.7901  21741
 51.9901  23311
 52.1902  23913.1
 52.3902  22781
 52.5902  22566.9
 52.7903  21763.5
 52.9903  21281.1
 53.1904  20545.2
 53.3904  20759.4
 53.5904  21602.7
 53.7905  22668.4
 53.9905  21675
 54.1905  20467.5
 54.3906  20055.8
 54.5906  19650.9
 54.7907  19084.6
 54.9907  18890.3
 55.1907  19277.2
 55.3908  20086.7
 55.5908  20427.1
 55.7909  20402.9
 55.9909  21116.5
 56.1909  21547.1
 56.391  21001.2
 56.591  19282.1
 56.791  18420.8
 56.9911  18289.6
 57.1911  17949.2
 57.3912  16611.3
 57.5912  15404.6
 57.7912  14634.2
 57.9913  15003.6
 58.1913  13188.7
 58.3914  7707.34
 58.5914  1700.92