File: pdfgetxn3-examples/Pt/series/Pt_bulk_ramp03-00905.chi
Pt_bulk_ramp03-00905.tif: 2-theta Scan
2-Theta Angle (Degrees)

       1465
 0.180035  0.0000000E+00
 0.380074  0.0000000E+00
 0.580113  0.0000000E+00
 0.780152  18988.6
 0.980191  89721.9
 1.18023  65697
 1.38027  55241.9
 1.58031  50624.6
 1.78035  50006.4
 1.98039  47330.5
 2.18042  47344.9
 2.38046  48013.8
 2.5805  49862
 2.78054  47205.2
 2.98058  43981.7
 3.18062  40310.1
 3.38066  40103.4
 3.5807  40371.4
 3.78074  39970
 3.98077  39354.2
 4.18081  40602.5
 4.38085  43563.9
 4.58089  51137.8
 4.78093  67381.3
 4.98097  115274
 5.18101  381731
 5.38105  3.67536e+06
 5.58109  562644
 5.78113  156643
 5.98116  231256
 6.1812  1.70668e+06
 6.38124  527335
 6.58128  84921.3
 6.78132  49995.7
 6.98136  40013
 7.1814  35638.8
 7.38144  33904.1
 7.58148  33539.7
 7.78151  34693
 7.98155  37920.2
 8.18159  45146.2
 8.38163  65232.2
 8.58167  162067
 8.78171  1.31272e+06
 8.98175  391510
 9.18179  80562.5
 9.38183  57569.1
 9.58186  57200
 9.7819  69993.1
 9.98194  118246
 10.182  467092
 10.382  1.66768e+06
 10.5821  273502
 10.7821  553523
 10.9821  151186
 11.1822  52677.6
 11.3822  40339.1
 11.5823  36176.9
 11.7823  34981.3
 11.9823  37874.7
 12.1824  50348.6
 12.3824  146486
 12.5824  158016
 12.7825  53488
 12.9825  48605.9
 13.1826  63961.6
 13.3826  136834
 13.5826  655274
 13.7827  368279
 13.9827  624936
 14.1828  150485
 14.3828  60861.6
 14.5828  48575.3
 14.7829  50074.5
 14.9829  69908.3
 15.183  214670
 15.383  349854
 15.583  85399.4
 15.7831  62256.6
 15.9831  99099.5
 16.1831  360711
 16.3832  218804
 16.5832  60921.5
 16.7833  39999.9
 16.9833  35758.4
 17.1833  36435.5
 17.3834  44199.1
 17.5834  91411.1
 17.7835  120960
 17.9835  61802.3
 18.1835  79249.5
 18.3836  221681
 18.5836  394803
 18.7837  301544
 18.9837  110091
 19.1837  55430
 19.3838  49891.4
 19.5838  69686.8
 19.7839  152028
 19.9839  85861.6
 20.1839  55775.6
 20.384  86618.8
 20.584  171578
 20.784  156042
 20.9841  70789.8
 21.1841  41260.9
 21.3842  37762.4
 21.5842  47966.5
 21.7842  62751.3
 21.9843  50765.5
 22.1843  80054.6
 22.3844  186396
 22.5844  154656
 22.7844  82322.5
 22.9845  51290.4
 23.1845  56792.8
 23.3846  114410
 23.5846  130977
 23.7846  75110.4
 23.9847  120738
 24.1847  165884
 24.3847  66110.2
 24.5848  39812.9
 24.7848  34374.5
 24.9849  36308.6
 25.1849  40411.7
 25.3849  40219.4
 25.585  59002.2
 25.785  100561
 25.9851  102089
 26.1851  53168.1
 26.3851  44540.2
 26.5852  63497.2
 26.7852  70432.7
 26.9853  56338.1
 27.1853  90990.4
 27.3853  96738.7
 27.5854  59018.7
 27.7854  41186.5
 27.9854  44015.8
 28.1855  57051.7
 28.3855  53275.4
 28.5856  80645.5
 28.7856  110490
 28.9856  75138
 29.1857  44149.1
 29.3857  39971.9
 29.5858  49153.7
 29.7858  41968.9
 29.9858  50323.5
 30.1859  50244.9
 30.3859  34775.5
 30.586  31522
 30.786  36790.3
 30.986  44367.3
 31.1861  46051.7
 31.3861  70635.1
 31.5861  65752.2
 31.7862  45507.3
 31.9862  43927.3
 32.1863  61043.9
 32.3863  55399.1
 32.5863  57655.7
 32.7864  65227.7
 32.9864  45312.7
 33.1865  32827.9
 33.3865  29771
 33.5865  31423.8
 33.7866  40680.2
 33.9866  58472.7
 34.1867  53089.6
 34.3867  38000.8
 34.5867  38698.3
 34.7868  39522.3
 34.9868  36519.4
 35.1868  38143.2
 35.3869  30538.3
 35.5869  28012.2
 35.787  30353.4
 35.987  35299.8
 36.187  48242.4
 36.3871  59404.6
 36.5871  44769.8
 36.7872  36163
 36.9872  39136
 37.1872  38653.4
 37.3873  43936.3
 37.5873  44739.8
 37.7874  34611.6
 37.9874  31184.7
 38.1874  32403.8
 38.3875  32838.7
 38.5875  36206.4
 38.7875  32339.7
 38.9876  30777
 39.1876  35513.1
 39.3877  35659.6
 39.5877  38237.6
 39.7877  33790.2
 39.9878  27893.8
 40.1878  27233.6
 40.3879  28187.2
 40.5879  30983.5
 40.7879  36900.7
 40.988  33515.1
 41.188  31005.4
 41.3881  33053
 41.5881  35383.1
 41.7881  38354.8
 41.9882  32151.2
 42.1882  28799.5
 42.3882  29673.6
 42.5883  33334
 42.7883  38968.5
 42.9884  34094.7
 43.1884  28915.9
 43.3884  28021.6
 43.5885  26672.5
 43.7885  26064.1
 43.9886  23888.2
 44.1886  23341.2
 44.3886  24690.6
 44.5887  28079.4
 44.7887  31576.1
 44.9888  29218
 45.1888  28734.2
 45.3888  30238.4
 45.5889  30661.7
 45.7889  30678
 45.9889  27121.6
 46.189  25631.7
 46.389  26184.7
 46.5891  28767
 46.7891  29453
 46.9891  27504.6
 47.1892  28128.8
 47.3892  27728.9
 47.5893  27362.1
 47.7893  24950.1
 47.9893  23997.9
 48.1894  24914.7
 48.3894  26661.3
 48.5895  26937.7
 48.7895  23727.9
 48.9895  22420.6
 49.1896  22265.3
 49.3896  22981.6
 49.5896  22433.4
 49.7897  21451.1
 49.9897  21696.5
 50.1898  23753
 50.3898  25578.7
 50.5898  24557.5
 50.7899  24814.6
 50.9899  25353.3
 51.19  25741.9
 51.39  23382.2
 51.59  21762.8
 51.7901  21850.6
 51.9901  23373.6
 52.1902  23999.4
 52.3902  22840.2
 52.5902  22667.1
 52.7903  21843.5
 52.9903  21328.9
 53.1904  20598.1
 53.3904  20886.4
 53.5904  21690.2
 53.7905  22708
 53.9905  21618.2
 54.1905  20496.2
 54.3906  20122.5
 54.5906  19668.7
 54.7907  19079
 54.9907  18913.1
 55.1907  19355.9
 55.3908  20145.9
 55.5908  20411.1
 55.7909  20474.3
 55.9909  20988.8
 56.1909  21504.9
 56.391  21103.4
 56.591  19299.9
 56.791  18491
 56.9911  18208.3
 57.1911  18021.3
 57.3912  16764.3
 57.5912  15313.6
 57.7912  14517.7
 57.9913  15065.3
 58.1913  13271.5
 58.3914  7540.92
 58.5914  1866.93